Sample Index, EXG Channel 0
0,-567554.0
1,-568231.0
2,-567848.0
2,-567693.0
3,-567917.0
3,-567554.0
3,-568231.0
3,-567848.0
4,-567693.0
4,-567917.0
4,-567554.0
5,-568231.0
5,-567848.0
5,-567693.0
5,123456789.0
9,531.0
9,444.0
11,677.0
11,874.0
11,289.0
12,584.0
12,621.0
12,524.0
13,975.0
13,408.0
13,537.0
13,346.0
14,931.0
14,1050.0
14,675.0
15,1372.0
15,721.0
15,984.0
15,1007.0
16,648.0
16,837.0
16,774.0
16,887.0
17,1040.0
17,885.0
17,606.0
18,479.0
18,1050.0
18,1213.0
19,738.0
19,931.0
19,802.0
20,877.0
20,1352.0
20,1111.0
21,1392.0
21,1429.0
22,1410.0
22,1689.0
22,1498.0
23,1223.0
23,1792.0
23,1295.0
24,2032.0
24,1187.0
24,1662.0
25,1025.0
25,984.0
25,1809.0
26,1430.0
26,1881.0
26,1560.0
26,1451.0
27,1704.0
27,1403.0
27,1882.0
28,1233.0
28,1458.0
28,1619.0
28,1510.0
29,1753.0
29,1796.0
29,1235.0
29,2412.0
30,1987.0
30,2108.0
30,2047.0
31,1726.0
31,2051.0
31,1728.0
31,2183.0
32,2264.0
32,1547.0
32,2118.0
32,1393.0
33,2184.0
33,2015.0
33,2016.0
33,2263.0
34,446.0
34,1947.0
35,1478.0
35,1577.0
35,1008.0
36,1141.0
36,1524.0
36,1585.0
37,1298.0
37,1847.0
37,2648.0
38,3349.0
38,4206.0
38,4463.0
39,4908.0
39,4687.0
39,6486.0
40,6887.0
40,7024.0
40,7197.0
41,7382.0
41,8947.0
41,9884.0
42,9361.0
42,9346.0
42,9293.0
43,10306.0
43,10271.0
43,9148.0
43,9735.0
44,8672.0
44,8821.0
44,8324.0
44,8365.0
45,9888.0
45,10169.0
45,11598.0
46,14143.0
46,15080.0
46,16333.0
46,16962.0
47,17163.0
47,18812.0
47,19175.0
47,19764.0
48,18769.0
48,20770.0
48,21703.0
48,22414.0
49,22925.0
49,22322.0
49,19905.0
50,19464.0
50,18707.0
50,17764.0
51,17155.0
51,16620.0
51,16913.0
52,16866.0
52,16177.0
52,15876.0
53,15735.0
53,15616.0
53,15035.0
54,15318.0
54,14683.0
54,14938.0
55,14909.0
55,14384.0
55,14675.0
56,14222.0
56,14195.0
56,14474.0
57,13811.0
57,14398.0
58,14157.0
58,14172.0
58,15707.0
58,16962.0
59,19097.0
59,20270.0
59,20585.0
59,20344.0
60,19573.0
60,19578.0
60,18835.0
61,18574.0
61,18311.0
61,17444.0
61,17791.0
62,16540.0
62,16511.0
62,16196.0
62,15363.0
63,15786.0
63,14925.0
63,14886.0
63,15023.0
64,14476.0
64,14395.0
64,13806.0
64,14133.0
65,14616.0
65,14287.0
65,14774.0
66,14411.0
66,14402.0
66,14875.0
66,14428.0
67,14601.0
67,14010.0
68,13893.0
68,13946.0
68,13489.0
69,13586.0
69,13239.0
69,13384.0
70,13323.0
70,13078.0
70,12745.0
71,12410.0
71,12471.0
71,12108.0
72,11507.0
72,11788.0
72,11797.0
72,11584.0
73,11239.0
73,11222.0
73,11637.0
73,11484.0
74,11691.0
74,11852.0
74,11533.0
75,11730.0
75,11409.0
75,11524.0
76,11741.0
76,11396.0
76,11881.0
76,11192.0
77,11529.0
77,11844.0
77,11019.0
78,11598.0
78,11145.0
78,11146.0
78,11645.0
79,10748.0
79,11835.0
79,12372.0
80,12639.0
80,13646.0
80,13377.0
80,13934.0
81,13645.0
81,13924.0
81,14121.0
81,13456.0
82,13541.0
82,13218.0
82,12939.0
83,13278.0
83,12699.0
83,12524.0
84,12225.0
84,11978.0
84,12001.0
85,11714.0
85,11875.0
85,11736.0
86,11721.0
86,11790.0
86,11327.0
86,11244.0
87,11809.0
87,11650.0
88,11735.0
88,11290.0
88,11687.0
89,11480.0
89,11515.0
89,11708.0
89,11063.0
90,11382.0
90,11247.0
90,11408.0
91,11387.0
91,10752.0
91,11015.0
91,10794.0
92,10927.0
92,11146.0
92,10701.0
92,10600.0
93,10299.0
93,10376.0
93,10569.0
94,9840.0
94,10229.0
94,10014.0
94,9811.0
95,10086.0
95,9425.0
95,9714.0
95,9339.0
96,9544.0
96,9461.0
96,9022.0
96,9627.0
97,9116.0
97,9035.0
97,9500.0
98,9265.0
98,9634.0
98,9269.0
98,9148.0
99,9819.0
99,9224.0
99,9567.0
100,9352.0
100,9015.0
100,9988.0
101,10219.0
101,10790.0
101,10483.0
102,11102.0
102,11549.0
102,11014.0
103,11217.0
103,11338.0
103,11151.0
104,11314.0
104,10557.0
104,10578.0
105,10673.0
105,10686.0
105,10359.0
106,10126.0
106,10285.0
106,9988.0
106,9769.0
107,10082.0
107,9511.0
107,9358.0
107,9551.0
108,9580.0
108,9647.0
108,9352.0
109,9709.0
109,9726.0
109,9911.0
109,9892.0
109,9367.0
110,9610.0
110,9667.0
110,9558.0
111,9977.0
111,9842.0
111,9515.0
111,9838.0
112,9353.0
112,9478.0
112,9541.0
113,9792.0
124,10005.0
133,9702.0
142,10015.0
154,9698.0
162,10011.0
174,9792.0
183,9651.0
195,10630.0
203,9595.0
211,10104.0
224,10403.0
232,9900.0
244,10363.0
252,9956.0
264,10061.0
273,9666.0
285,9073.0
293,9182.0
301,8217.0
314,8456.0
322,8675.0
334,8332.0
342,8273.0
354,7624.0
362,8001.0
375,7406.0
383,6821.0
391,7882.0
404,7383.0
412,7770.0
424,8307.0
432,7908.0
444,8907.0
453,8758.0
465,10279.0
473,13052.0
481,20357.0
494,28718.0
502,44717.0
514,59790.0
522,79499.0
534,101196.0
543,123131.0
551,144576.0
563,135677.0
571,134086.0
584,133649.0
596,133406.0
605,132631.0
613,132034.0
625,132269.0
633,133768.0
645,133425.0
654,132608.0
666,132069.0
674,131976.0
682,133345.0
695,138958.0
703,139105.0
715,138864.0
723,139547.0
735,140130.0
744,141737.0
756,136626.0
764,133027.0
773,132472.0
785,135799.0
793,134904.0
805,133429.0
813,133766.0
826,130775.0
834,128186.0
846,128593.0
854,127780.0
862,127949.0
875,127328.0
883,125961.0
895,125604.0
903,122981.0
915,122656.0
924,122559.0
936,122078.0
944,122043.0
952,119552.0
965,111837.0
973,104620.0
985,99909.0
993,98436.0
1006,96567.0
1014,96212.0
1022,96083.0
1034,95326.0
1043,96279.0
1055,95830.0
1063,94939.0
1075,94946.0
1083,94609.0
1096,94362.0
1104,94055.0
1112,94886.0
1124,96197.0
1133,96342.0
1145,96403.0
1153,96564.0
1165,96745.0
1174,96616.0
1186,96749.0
1194,97004.0
1202,96855.0
1214,97422.0
1223,97551.0
1235,97746.0
1243,98749.0
1255,99418.0
1264,99933.0
1276,100698.0
1284,100841.0
1296,101204.0
1305,101627.0
1317,101984.0
1325,102563.0
1333,102824.0
1345,103347.0
1353,103356.0
1366,103937.0
1374,103332.0
1386,102375.0
1394,102356.0
1406,102047.0
1415,101894.0
1423,101889.0
1435,102024.0
1443,102275.0
1456,102384.0
1464,102419.0
1476,101996.0
1484,101117.0
1493,101412.0
1505,101397.0
1513,101420.0
1525,101743.0
1534,101136.0
1546,101549.0
1554,101586.0
1566,101839.0
1575,102060.0
1583,101395.0
1595,101888.0
1603,101405.0
1616,101066.0
1624,101443.0
1636,100750.0
1644,101035.0
1656,101536.0
1665,101191.0
1673,101728.0
1685,100891.0
1693,101248.0
1706,101295.0
1714,101152.0
1726,101691.0
1734,101034.0
1746,101447.0
1755,101264.0
1763,101133.0
1775,101250.0
1783,100705.0
1796,101198.0
1804,101417.0
1816,101346.0
1824,101519.0
1833,101192.0
1845,101533.0
1853,102034.0
1865,101549.0
1874,101442.0
1886,101105.0
1894,101478.0
1906,101889.0
1914,101710.0
1927,101895.0
1935,101562.0
1947,101835.0
1955,101628.0
1964,101967.0
1976,102388.0
1984,101611.0
1996,101690.0
2005,101979.0
2017,101804.0
2025,101801.0
2037,101340.0
2046,101895.0
2054,101614.0
2066,101785.0
2074,101772.0
2087,101781.0
2095,101732.0
2107,101537.0
2115,101238.0
2127,101447.0
2136,100934.0
2144,101115.0
2156,101182.0
2164,101085.0
2177,101246.0
2185,101043.0
2197,101280.0
2205,101219.0
2217,100924.0
2226,101039.0
2234,100626.0
2246,100801.0
2254,101372.0
2267,100557.0
2275,100708.0
2287,100275.0
2295,100536.0
2304,100455.0
2316,100552.0
2324,101159.0
2336,100678.0
2345,101165.0
2357,101474.0
2365,100733.0
2377,100852.0
2386,101127.0
2394,101092.0
2406,101245.0
2414,100422.0
2427,100629.0
2435,100442.0
2447,99879.0
2455,100626.0
2467,100293.0
2476,100560.0
2528,100301.0
2528,102014.0
2529,104939.0
2529,107270.0
2529,110383.0
2538,112946.0
2546,116625.0
2558,119362.0
2567,120847.0
2579,123054.0
2587,127581.0
2599,131686.0
2607,136411.0
2615,139670.0
2628,145403.0
2636,149772.0
2648,156053.0
2656,160894.0
2668,163973.0
2677,170230.0
2689,174477.0
2697,181494.0
2705,187911.0
2718,196106.0
2726,204069.0
2738,214268.0
2746,221117.0
2758,228866.0
2767,240441.0
2775,249406.0
2787,254843.0
2796,264132.0
2808,279321.0
2816,289326.0
2828,299349.0
2837,308166.0
2849,301595.0
2857,314472.0
2865,308627.0
2877,304526.0
2886,297929.0
2898,302082.0
2906,299349.0
2918,298706.0
2926,298729.0
2938,301710.0
2947,306107.0
2955,300298.0
2967,301631.0
2975,313240.0
2988,311147.0
2996,301906.0
3008,299295.0
3016,297170.0
3029,295069.0
3037,293300.0
3045,290855.0
3057,289846.0
3065,288039.0
3078,286870.0
3086,285331.0
3098,284168.0
3106,283453.0
3115,282146.0
3127,281293.0
3135,279588.0
3147,279209.0
3156,278810.0
3168,277381.0
3176,276644.0
3188,275585.0
3197,275052.0
3205,274781.0
3217,273386.0
3225,273101.0
3238,272128.0
3246,271559.0
3258,271024.0
3266,270241.0
3278,269584.0
3287,269019.0
3299,268042.0
3307,267861.0
3319,266568.0
3328,266591.0
3336,265862.0
3348,265453.0
3356,265318.0
3369,264055.0
3377,264110.0
3389,263081.0
3397,262718.0
3409,262587.0
3418,261488.0
3426,261169.0
3438,260754.0
3446,260417.0
3459,260430.0
3467,259229.0
3479,259522.0
3487,258737.0
3499,258600.0
3508,258703.0
3516,257550.0
3528,257735.0
3537,257036.0
3549,257165.0
3557,256566.0
3569,255721.0
3577,255904.0
3586,255077.0
3598,254802.0
3606,255277.0
3618,254626.0
3627,254671.0
3639,253930.0
3647,253731.0
3659,253668.0
3668,252945.0
3676,253158.0
3688,252785.0
3696,252184.0
3709,252625.0
3717,251726.0
3729,251671.0
3737,251266.0
3749,251157.0
3758,251162.0
3766,250655.0
3778,250372.0
3786,250241.0
3799,249898.0
3807,249939.0
3819,249338.0
3827,249155.0
3839,249062.0
3848,248825.0
3856,249166.0
3869,248323.0
3877,248628.0
3889,248273.0
3897,248220.0
3909,248197.0
3918,247718.0
3930,247553.0
3939,247256.0
3951,247065.0
3959,246934.0
3971,246391.0
3980,246596.0
3988,246301.0
4000,246430.0
4008,246387.0
4020,245996.0
4029,245979.0
4041,245446.0
4049,245239.0
4058,245582.0
4069,244907.0
4078,244990.0
4090,245081.0
4098,244412.0
4110,244201.0
4119,243968.0
4131,244079.0
4139,243854.0
4147,243921.0
4159,243582.0
4168,243075.0
4180,243102.0
4188,243003.0
4200,242936.0
4209,243147.0
4221,242678.0
4229,242695.0
4237,242492.0
4250,241919.0
4258,242258.0
4270,241591.0
4278,241604.0
4290,242127.0
4299,241546.0
4311,241681.0
4319,241348.0
4327,241503.0
4340,241234.0
4348,240821.0
4360,241020.0
4368,240715.0
4381,240712.0
4389,240737.0
4397,240110.0
4409,240699.0
4418,239974.0
4430,240325.0
4438,240558.0
4450,239855.0
4458,239884.0
4471,239901.0
4479,239950.0
4487,240111.0
4499,239776.0
4508,239965.0
4520,239208.0
4528,239535.0
4540,239236.0
4549,239191.0
4561,239026.0
4569,238615.0
4581,238594.0
4590,239049.0
4602,238280.0
4610,238345.0
4618,238046.0
4630,237991.0
4639,238366.0
4651,237821.0
4659,238010.0
4671,238011.0
4680,237956.0
4692,237935.0
4699,237942.0
4709,237979.0
4721,237944.0
4729,237721.0
4741,237876.0
4750,237177.0
4762,237554.0
4770,236967.0
4782,237322.0
4791,236969.0
4799,236260.0
4811,236705.0
4819,236180.0
4831,235933.0
4840,235900.0
4852,235909.0
4860,236304.0
4868,235523.0
4881,235746.0
4889,235931.0
4901,235516.0
4909,236011.0
4922,235144.0
4930,235343.0
4942,235850.0
4950,235149.0
4958,235394.0
4970,234583.0
4978,235320.0
4991,235263.0
4999,234964.0
5011,234991.0
5020,234638.0
5031,234885.0
5040,234876.0
5048,234353.0
5060,234834.0
5069,234183.0
5081,234230.0
5089,234485.0
5101,234094.0
5110,234405.0
5122,233770.0
5130,233509.0
5138,233642.0
5150,233219.0
5159,233650.0
5171,233623.0
5179,233636.0
5191,234047.0
5200,233182.0
5212,233381.0
5220,233082.0
5228,232831.0
5241,233196.0
5253,232851.0
5261,233244.0
5269,232805.0
5281,232594.0
5336,232915.0
5337,233130.0
5337,259969.0
5337,280826.0
5338,286331.0
5339,302362.0
5352,323579.0
5360,316470.0
5372,315667.0
5380,310594.0
5392,319333.0
5401,313966.0
5412,311241.0
5421,313126.0
5429,316133.0
5441,322552.0
5450,320117.0
5462,315324.0
5470,317899.0
5482,314240.0
5490,311571.0
5503,317130.0
5511,319323.0
5519,314526.0
5531,315009.0
5540,314718.0
5552,314577.0
5560,315488.0
5572,312289.0
5581,310460.0
5593,312605.0
5601,310896.0
5609,306697.0
5622,311558.0
5630,310223.0
5642,311068.0
5650,309039.0
5662,310172.0
5671,306617.0
5679,305784.0
5691,307049.0
5699,311624.0
5712,309523.0
5720,308346.0
5732,305749.0
5740,306080.0
5752,307589.0
5761,302242.0
5769,309775.0
5781,311200.0
5789,307339.0
5802,303700.0
5810,304151.0
5822,303812.0
5830,303669.0
5843,303924.0
5851,303093.0
5859,302822.0
5871,302627.0
5879,302344.0
5892,302303.0
5900,301606.0
5912,301699.0
5921,301382.0
5933,300985.0
5941,301368.0
5954,300381.0
5961,300416.0
5974,300361.0
5982,299854.0
5990,299989.0
6003,299384.0
6011,299425.0
6023,299156.0
6031,299089.0
6043,299074.0
6051,298219.0
6064,298288.0
6072,298079.0
6081,297848.0
6093,297853.0
6101,297168.0
6113,297001.0
6121,296826.0
6134,296787.0
6142,296216.0
6150,295855.0
6163,296492.0
6171,296103.0
6183,295936.0
6191,295837.0
6203,295170.0
6212,295381.0
6224,295330.0
6232,294427.0
6240,294730.0
6253,294263.0
6261,294542.0
6273,294241.0
6281,294086.0
6293,294555.0
6301,293856.0
6313,293881.0
6322,293714.0
6330,293573.0
6342,293616.0
6350,292883.0
6363,292852.0
6371,293135.0
6383,292446.0
6391,292651.0
6404,291976.0
6412,292193.0
6420,292274.0
6472,292083.0
6472,290796.0
6472,290351.0
6472,290628.0
6474,290501.0
6482,289776.0
6494,290351.0
6502,289508.0
6510,289733.0
6523,289380.0
6531,289173.0
6543,289384.0
6552,288823.0
6564,289046.0
6572,289101.0
6584,288628.0
6592,289213.0
6605,288558.0
6613,288401.0
6621,288574.0
6634,288457.0
6642,286628.0
6654,286475.0
6662,286480.0
6674,286523.0
6682,286158.0
6694,286527.0
6703,285788.0
6711,286109.0
6724,285872.0
6732,285395.0
6744,285774.0
6752,285209.0
6764,285548.0
6773,285249.0
6785,285284.0
6793,285721.0
6801,284948.0
6814,285169.0
6822,285374.0
6834,284709.0
6842,283342.0
6855,283123.0
6863,283292.0
6875,283239.0
6883,283146.0
6892,283127.0
6904,282728.0
6912,282951.0
6924,283042.0
6932,282423.0
6945,282628.0
6953,282279.0
6961,282428.0
6974,282731.0
6982,282092.0
6994,282361.0
7002,282384.0
7014,282057.0
7023,282516.0
7034,282145.0
7043,280160.0
7051,279615.0
7063,279920.0
7071,280067.0
7084,279978.0
7092,280049.0
7104,279460.0
7112,279715.0
7125,279892.0
7133,279051.0
7141,279782.0
7154,279347.0
7162,279320.0
7174,279307.0
7182,278958.0
7194,279101.0
7203,278972.0
7215,278517.0
7223,278768.0
7235,278629.0
7244,276810.0
7256,276773.0
7264,276898.0
7272,277191.0
7284,276898.0
7293,277207.0
7305,276720.0
7313,276925.0
7325,276858.0
7333,276205.0
7346,277002.0
7354,276679.0
7363,276832.0
7375,276503.0
7383,276296.0
7395,276411.0
7404,275934.0
7415,276015.0
7424,276036.0
7432,275505.0
7444,273966.0
7452,273625.0
7464,273898.0
7473,273919.0
7485,273172.0
7493,273633.0
7505,273216.0
7514,273207.0
7522,273708.0
7535,272999.0
7543,273512.0
7555,272779.0
7563,273358.0
7575,273199.0
7583,273182.0
7595,273181.0
7604,273112.0
7612,273179.0
7625,273274.0
7633,273039.0
7645,271316.0
7653,271049.0
7665,271044.0
7674,271399.0
7686,270724.0
7694,271061.0
7702,270878.0
7715,270645.0
7723,270976.0
7735,270605.0
7743,270954.0
7756,270945.0
7764,270866.0
7776,271331.0
7784,270704.0
7792,270747.0
7804,270682.0
7813,270705.0
7825,270730.0
7833,270241.0
7845,267810.0
7854,267683.0
7866,267756.0
7874,268143.0
7886,267838.0
7895,267887.0
7903,267600.0
7915,267735.0
7923,268030.0
7935,267359.0
7944,267800.0
7956,267761.0
7964,267560.0
7977,267821.0
7985,267574.0
7993,267615.0
8005,267620.0
8013,267841.0
8026,267644.0
8034,267631.0
8046,265602.0
8054,264983.0
8066,265444.0
8075,265273.0
8083,264520.0
8095,265067.0
8103,265008.0
8116,264881.0
8124,265034.0
8136,264711.0
8144,265018.0
8157,264909.0
8165,264720.0
8174,264499.0
8186,264134.0
8194,264779.0
8206,264076.0
8215,264257.0
8227,264820.0
8236,264437.0
8243,260802.0
8255,261047.0
8264,261140.0
8276,261321.0
8284,261174.0
8296,261373.0
8305,261484.0
8317,261131.0
8325,261448.0
8333,261051.0
8345,261400.0
8353,261269.0
8366,260866.0
8374,261261.0
8386,260890.0
8394,261261.0
8407,261434.0
8415,261229.0
8423,261470.0
8435,260899.0
8444,259070.0
8456,258857.0
8465,258530.0
8477,259103.0
8485,258710.0
8497,258743.0
8505,258686.0
8513,258847.0
8525,258808.0
8538,258253.0
8546,258410.0
8554,258529.0
8567,258430.0
8575,258809.0
8587,258290.0
8595,258293.0
8608,258724.0
8616,258559.0
8628,258370.0
8636,258529.0
8644,254122.0
8656,254669.0
8665,254432.0
8677,254941.0
8686,254610.0
8698,254897.0
8706,254512.0
8714,254523.0
8727,254916.0
8735,254517.0
8747,255218.0
8755,255211.0
8768,254826.0
8776,254985.0
8788,254414.0
8796,254651.0
8804,254488.0
8816,254759.0
8825,254592.0
8837,254523.0
8845,252064.0
8857,251797.0
8866,251736.0
8878,252011.0
8887,251762.0
8895,252001.0
8907,252152.0
8915,251683.0
8927,251986.0
8935,251665.0
8948,252258.0
8956,252185.0
8968,252052.0
8976,251939.0
8985,251726.0
8997,251723.0
9005,251752.0
9017,251793.0
9026,252378.0
9038,251665.0
9045,248196.0
9058,248343.0
9066,248048.0
9075,248831.0
9087,248448.0
9095,248415.0
9107,248902.0
9116,248335.0
9128,248816.0
9136,248385.0
9144,248350.0
9156,248685.0
9164,248562.0
9176,248307.0
9185,248474.0
9198,248445.0
9206,248738.0
9218,248185.0
9226,248676.0
9238,247913.0
9246,245526.0
9259,245599.0
9267,245416.0
9275,245953.0
9287,245604.0
9296,245817.0
9308,245756.0
9316,245869.0
9328,245756.0
9336,245551.0
9348,245556.0
9357,245877.0
9365,245416.0
9377,245881.0
9385,245260.0
9398,245739.0
9406,245834.0
9418,245639.0
9427,246078.0
9439,245415.0
9448,241838.0
9456,242171.0
9468,242132.0
9476,242747.0
9488,242390.0
9496,242529.0
9509,242764.0
9517,241987.0
9525,242478.0
9538,242211.0
9546,242500.0
9558,242791.0
9566,242380.0
9578,242661.0
9586,242456.0
9598,242481.0
9607,243128.0
9615,242841.0
9627,243006.0
9635,242519.0
9648,239936.0
9656,240343.0
9668,239684.0
9676,240379.0
9689,240122.0
9697,240199.0
9705,240344.0
9718,239735.0
9726,240176.0
9738,240297.0
9746,240272.0
9759,240609.0
9767,240006.0
9779,239957.0
9787,240142.0
9795,240491.0
9807,240880.0
9816,239979.0
9828,240478.0
9837,240181.0
9849,236378.0
9857,236753.0
9869,236496.0
9877,236671.0
9889,236844.0
9898,236621.0
9909,237032.0
9918,237031.0
9926,236740.0
9939,236617.0
9947,236874.0
9959,236947.0
9967,236652.0
9980,237219.0
9988,237086.0
9996,236709.0
10008,237086.0
10017,236619.0
10030,237026.0
10037,236797.0
10049,234546.0
10058,234631.0
10070,234612.0
10078,234761.0
10087,234712.0
10098,234737.0
10106,234964.0
10119,234433.0
10127,234782.0
10139,234739.0
10148,234818.0
10159,234965.0
10168,234366.0
10176,234775.0
10189,234840.0
10197,234749.0
10209,235114.0
10217,234757.0
10230,234778.0
10238,234847.0
10249,230532.0
10258,231253.0
10266,230508.0
10278,231053.0
10286,231092.0
10299,231127.0
10307,231516.0
10319,230913.0
10327,231540.0
10340,231379.0
10348,231524.0
10356,231919.0
10368,231430.0
10377,231511.0
10389,231486.0
10398,231163.0
10410,231566.0
10418,231227.0
10426,231704.0
10438,231939.0
10446,228666.0
10458,229053.0
10467,228650.0
10480,228793.0
10488,229008.0
10500,228793.0
10508,229008.0
10520,228593.0
10528,228854.0
10541,229123.0
10549,228862.0
10557,229247.0
10569,228906.0
10578,229163.0
10590,229394.0
10598,229343.0
10611,229644.0
10619,229207.0
10631,229236.0
10639,229215.0
10647,225670.0
10660,225297.0
10667,224962.0
10680,225675.0
10688,225748.0
10700,225911.0
10709,225920.0
10721,225653.0
10729,226036.0
10737,225937.0
10749,225614.0
10757,226023.0
10770,225678.0
10778,226189.0
10790,225842.0
10799,225743.0
10807,226244.0
10819,225843.0
10827,226266.0
10840,226135.0
10848,223254.0
10860,223751.0
10868,222936.0
10881,223607.0
10889,223834.0
10897,223607.0
10909,223818.0
10918,223615.0
10930,223780.0
10938,223703.0
10950,223914.0
10959,223981.0
10971,223528.0
10979,224127.0
10987,224064.0
11000,223851.0
11008,224228.0
11020,224097.0
11028,224616.0
11040,224969.0
11049,219962.0
11061,220451.0
11069,220392.0
11077,220637.0
11090,220774.0
11098,220399.0
11110,220682.0
11118,220255.0
11130,220626.0
11138,220681.0
11151,220490.0
11159,221151.0
11167,220640.0
11179,220839.0
11188,221078.0
11200,220757.0
11208,221154.0
11221,220709.0
11229,221052.0
11241,221265.0
11250,218368.0
11262,218159.0
11270,217966.0
11278,218447.0
11290,218394.0
11298,218367.0
11311,218506.0
11319,217911.0
11331,218456.0
11339,218523.0
11351,217946.0
11360,218455.0
11368,218102.0
11381,218307.0
11389,218576.0
11401,218359.0
11410,218896.0
11421,218223.0
11430,218396.0
11442,218433.0
11450,213528.0
11458,214279.0
11471,213914.0
11479,214655.0
11491,214846.0
11499,214491.0
11511,215128.0
11519,214599.0
11532,214934.0
11540,215265.0
11548,214850.0
11560,215381.0
11569,214898.0
11581,215231.0
11589,215164.0
11601,214803.0
11610,215562.0
11622,215337.0
11630,215402.0
11638,215269.0
11651,212558.0
11659,212927.0
11672,212458.0
11680,212745.0
11692,212986.0
11700,212675.0
11708,212850.0
11720,212573.0
11728,212784.0
11741,213383.0
11749,212916.0
11761,213177.0
11769,213358.0
11782,213575.0
11790,214090.0
11799,213819.0
11811,214356.0
11819,213745.0
11831,213558.0
11839,213763.0
11851,208800.0
11859,208571.0
11872,208694.0
11880,208929.0
11893,209244.0
11901,208969.0
11912,209314.0
11921,209047.0
11929,209410.0
11941,209327.0
11949,209396.0
11962,209563.0
11970,209624.0
11982,209719.0
11991,209718.0
12002,209117.0
12011,209582.0
12019,209473.0
12032,209588.0
12040,209799.0
12052,206508.0
12060,207153.0
12072,206868.0
12081,206909.0
12089,206988.0
12102,206879.0
12110,207182.0
12122,206993.0
12130,206906.0
12142,207701.0
12151,206574.0
12162,207331.0
12171,207230.0
12179,207697.0
12192,207594.0
12200,207433.0
12211,207266.0
12220,207227.0
12232,207516.0
12241,207831.0
12252,203108.0
12261,203723.0
12269,203394.0
12282,203639.0
12290,203982.0
12302,203917.0
12310,204302.0
12322,204251.0
12331,203870.0
12343,204179.0
12351,203976.0
12359,204261.0
12372,204500.0
12380,204463.0
12392,204718.0
12400,204339.0
12412,204588.0
12421,204501.0
12433,204676.0
12441,204915.0
12449,202250.0
12462,202193.0
12470,202264.0
12482,202349.0
12490,202622.0
12502,202445.0
12510,202974.0
12522,203175.0
12531,203772.0
12543,204693.0
12551,204694.0
12560,204757.0
12573,204502.0
12580,203945.0
12593,204176.0
12601,203491.0
12613,203640.0
12622,203109.0
12633,203238.0
12642,203513.0
12650,199098.0
12662,199159.0
12671,199436.0
12683,199685.0
12691,200150.0
12703,199775.0
12712,200158.0
12724,200081.0
12732,200224.0
12740,200577.0
12753,200128.0
12761,200571.0
12773,200014.0
12781,200437.0
12794,200640.0
12802,199799.0
12814,200938.0
12822,200367.0
12831,200506.0
12843,200873.0
12851,197600.0
12863,197749.0
12871,197764.0
12883,198131.0
12892,198276.0
12903,197769.0
12912,198452.0
12921,198187.0
12932,197864.0
12941,198521.0
12952,197992.0
12962,198395.0
12974,198832.0
12982,198091.0
12990,198352.0
13003,198305.0
13011,198154.0
13023,198445.0
13031,198714.0
13043,198793.0
13052,194460.0
13064,194431.0
13072,194862.0
13080,194853.0
13093,195336.0
13101,194959.0
13113,195268.0
13121,195211.0
13134,195312.0
13142,195405.0
13153,194972.0
13162,195769.0
13174,195610.0
13183,195581.0
13195,195952.0
13203,195659.0
13211,196106.0
13224,196015.0
13232,195724.0
13243,196233.0
13252,193134.0
13264,193405.0
13272,193362.0
13284,193653.0
13293,194372.0
13301,193985.0
13313,195160.0
13321,196063.0
13334,196498.0
13343,196335.0
13355,195938.0
13363,195387.0
13371,194520.0
13383,194559.0
13391,194682.0
13403,193895.0
13412,194290.0
13424,193963.0
13432,193944.0
13444,194475.0
13453,190174.0
13461,190331.0
13473,190406.0
13482,190745.0
13494,190924.0
13502,190631.0
13514,190872.0
13522,191373.0
13534,191242.0
13543,191251.0
13551,191160.0
13564,191453.0
13572,191688.0
13584,191315.0
13592,191584.0
13604,191249.0
13613,191444.0
13625,191439.0
13633,190924.0
13641,191867.0
13653,188800.0
13661,189307.0
13674,189166.0
13683,188949.0
13694,189286.0
13703,189317.0
13715,189294.0
13723,189553.0
13731,189228.0
13744,189733.0
13752,189366.0
13764,189761.0
13773,189718.0
13784,189601.0
13793,189976.0
13801,189505.0
13813,189722.0
13821,189637.0
13833,189716.0
13842,190035.0
13854,186344.0
13863,186411.0
13875,186446.0
13883,186601.0
13895,186636.0
13903,186771.0
13915,187202.0
13924,187267.0
13932,187128.0
13944,187361.0
13953,187202.0
13965,187387.0
13973,187600.0
13985,187383.0
13993,187610.0
14006,187519.0
14014,187612.0
14022,187495.0
14035,187526.0
14043,187835.0
14055,184862.0
14063,185431.0
14075,186554.0
14084,187089.0
14096,188852.0
14104,189289.0
14112,189764.0
14125,189609.0
14133,188478.0
14145,187969.0
14154,186554.0
14166,186403.0
14174,186646.0
14186,185939.0
14195,186164.0
14203,185607.0
14215,185868.0
14223,186267.0
14235,185988.0
14243,186355.0
14255,182420.0
14264,182411.0
14272,182704.0
14284,182841.0
14292,183258.0
14305,182929.0
14313,183118.0
14325,183373.0
14334,183146.0
14345,183219.0
14353,183038.0
14362,183229.0
14374,183338.0
14382,183255.0
14394,183618.0
14403,183305.0
14415,183750.0
14423,183883.0
14435,183056.0
14444,183783.0
14452,180640.0
14464,180661.0
14472,181112.0
14484,180857.0
14493,181056.0
14505,180393.0
14513,181066.0
14525,181153.0
14534,180962.0
14547,181055.0
14555,181190.0
14567,181361.0
14575,181528.0
14584,181327.0
14596,181712.0
14604,181483.0
14616,181628.0
14624,181851.0
14636,181610.0
14645,181803.0
14653,177726.0
14665,178215.0
14673,178482.0
14685,177899.0
14694,178324.0
14706,178497.0
14714,178850.0
14727,178991.0
14735,178460.0
14743,178899.0
14755,178662.0
14763,179003.0
14775,179080.0
14784,178925.0
14796,179266.0
14804,178671.0
14817,178788.0
14825,179467.0
14833,179074.0
14845,179507.0
14854,177404.0
14866,178055.0
14874,179766.0
14886,180997.0
14895,183320.0
14907,184701.0
14915,184782.0
14923,184817.0
14936,183246.0
14944,181787.0
14956,180878.0
14964,179563.0
14976,179490.0
14984,178747.0
14997,178872.0
15005,178681.0
15013,178900.0
15027,179323.0
15033,178836.0
15046,179387.0
15054,175848.0
15066,175771.0
15074,175764.0
15083,175499.0
15095,175990.0
15103,175825.0
15115,175670.0
15124,175793.0
15136,175524.0
15144,175687.0
15156,175654.0
15164,175833.0
15177,176554.0
15185,176237.0
15198,176184.0
15206,175977.0
15214,176052.0
15226,176153.0
15235,175642.0
15247,176107.0
15255,173708.0
15267,173705.0
15276,173690.0
15288,173553.0
15296,173820.0
15304,173569.0
15317,173690.0
15325,173907.0
15337,173450.0
15345,173829.0
15358,173874.0
15366,173635.0
15378,173918.0
15386,173217.0
15394,173910.0
15406,173767.0
15415,173914.0
15427,173897.0
15435,173756.0
15447,174351.0
15456,172050.0
15468,171941.0
15476,171916.0
15485,171403.0
15497,171722.0
15505,171985.0
15517,171810.0
15525,172093.0
15538,171704.0
15546,171907.0
15554,172174.0
15566,171971.0
15575,172810.0
15587,172403.0
15595,172858.0
15608,172443.0
15616,172390.0
15628,172651.0
15636,171946.0
15644,172549.0
15656,170710.0
15665,170535.0
15677,171534.0
15685,172543.0
15697,175732.0
15706,178051.0
15718,179704.0
15726,180729.0
15734,179374.0
15746,178333.0
15755,177022.0
15767,175429.0
15775,174610.0
15787,173063.0
15796,172700.0
15808,172699.0
15816,172156.0
15825,171777.0
15837,171938.0
15849,172179.0
15857,170376.0
15866,169419.0
15878,169542.0
15886,169261.0
15898,169392.0
15906,169231.0
15918,168802.0
15927,169181.0
15935,168816.0
15948,169007.0
15956,169250.0
15968,169087.0
15976,169460.0
15988,169271.0
15996,169620.0
16009,169573.0
16017,169274.0
16025,169839.0
16037,169258.0
16045,169589.0
16057,168102.0
16066,167459.0
16078,167546.0
16086,167265.0
16098,167546.0
16107,167539.0
16115,167424.0
16127,167743.0
16136,167354.0
16148,167327.0
16157,167864.0
16169,167407.0
16177,167446.0
16189,167231.0
16197,167802.0
16206,168093.0
16218,167630.0
16226,168121.0
16238,167848.0
16246,168189.0
16259,166672.0
16267,165605.0
16278,165832.0
16287,165227.0
16295,165336.0
16307,165507.0
16315,165420.0
16328,165979.0
16336,165662.0
16348,165841.0
16356,165792.0
16365,166201.0
16377,166166.0
16386,165755.0
16398,166334.0
16406,166189.0
16418,165800.0
16426,166267.0
16439,165972.0
16447,166339.0
16455,165078.0
16468,164303.0
16476,164320.0
16488,163969.0
16496,164456.0
16509,164669.0
16517,164890.0
16529,166015.0
16537,167180.0
16549,170309.0
16557,172914.0
16569,175305.0
16578,176534.0
16586,175257.0
16599,174244.0
16606,171665.0
16619,170018.0
16627,169489.0
16640,167954.0
16648,167921.0
16659,165722.0
16668,164091.0
16676,163894.0
16689,163963.0
16696,164256.0
16709,164511.0
16718,163942.0
16729,164475.0
16737,163730.0
16750,163741.0
16759,163942.0
16767,163435.0
16779,163870.0
16787,163411.0
16799,163494.0
16808,163843.0
16819,163606.0
16828,164205.0
16836,163332.0
16848,164277.0
16856,163002.0
16869,161943.0
16877,162174.0
16889,161751.0
16897,162116.0
16909,161867.0
16918,161530.0
16926,161859.0
16938,161742.0
16947,161531.0
16959,161852.0
16967,161707.0
16979,161558.0
16988,161349.0
17000,161312.0
17008,161515.0
17016,161614.0
17029,161517.0
17037,161474.0
17048,161711.0
17057,161704.0
17069,160069.0
17077,159640.0
17090,159349.0
17098,159358.0
17106,159431.0
17118,159204.0
17127,159469.0
17139,159496.0
17147,159873.0
17159,159836.0
17168,159395.0
17180,159816.0
17188,159727.0
17201,159998.0
17209,159759.0
17217,159228.0
17228,159715.0
17238,159632.0
17250,159637.0
17258,159828.0
17270,158993.0
17278,158296.0
17290,158027.0
17298,158372.0
17307,158691.0
17319,158036.0
17328,158261.0
17339,157518.0
17348,158345.0
17360,159646.0
17368,160989.0
17381,164170.0
17389,167577.0
17397,170314.0
17410,171965.0
17418,171392.0
17430,170473.0
17439,167968.0
17450,166439.0
17459,164594.0
17471,162455.0
17482,161470.0
17487,160031.0
17500,159478.0
17508,159319.0
17520,158450.0
17528,159045.0
17541,158988.0
17549,159001.0
17560,159084.0
17569,158841.0
17577,158536.0
17590,158045.0
17598,157930.0
17610,158447.0
17619,158404.0
17631,158765.0
17639,158700.0
17647,158905.0
17659,159178.0
17668,158327.0
17680,158386.0
17688,157869.0
17700,157826.0
17708,157945.0
17720,157416.0
17729,157307.0
17737,156964.0
17749,156963.0
17757,156888.0
17770,156085.0
17778,156448.0
17791,156189.0
17799,156634.0
17811,156585.0
17819,156068.0
17831,156151.0
17840,155936.0
17851,156283.0
17860,155968.0
17868,155707.0
17881,156174.0
17888,155835.0
17901,155722.0
17909,155775.0
17922,155482.0
17930,155733.0
17942,155658.0
17950,155339.0
17958,155912.0
17970,154875.0
17978,155316.0
17991,155019.0
17999,154786.0
18012,155011.0
18020,154640.0
18031,154991.0
18040,154690.0
18048,154991.0
18061,154892.0
18069,154485.0
18081,154840.0
18089,154647.0
18102,154386.0
18110,154337.0
18118,154194.0
18131,154589.0
18139,155246.0
18151,155909.0
18159,158592.0
18171,161491.0
18179,165970.0
18196,168357.0
18199,169114.0
18208,168601.0
18220,167088.0
18228,164589.0
18241,162544.0
18249,161121.0
18262,159904.0
18270,157681.0
18282,157198.0
18290,156883.0
18298,157034.0
18311,156931.0
18319,156176.0
18331,156407.0
18339,156176.0
18352,156005.0
18360,156182.0
18372,155487.0
18380,155394.0
18389,155035.0
18401,154594.0
18409,154775.0
18421,154240.0
18429,154775.0
18442,154492.0
18450,155423.0
18461,154862.0
18470,154713.0
18478,155024.0
18490,154771.0
18499,154572.0
18511,154591.0
18519,154016.0
18532,154025.0
18540,153642.0
18552,153249.0
18560,153338.0
18573,152689.0
18581,152592.0
18589,152371.0
18601,152106.0
18610,152441.0
18621,151780.0
18630,152351.0
18642,152186.0
18650,151967.0
18663,152382.0
18670,151897.0
18680,152188.0
18691,152205.0
18700,152102.0
18712,152495.0
18720,151542.0
18732,152159.0
18741,151842.0
18753,151737.0
18761,152286.0
18769,151767.0
18781,152018.0
18789,152215.0
18802,152140.0
18810,152445.0
18822,151878.0
18831,151803.0
18843,152032.0
18851,152007.0
18859,152232.0
18871,151699.0
18879,151626.0
18892,152063.0
18900,152062.0
18912,152021.0
18921,152458.0
18929,153647.0
18942,156224.0
18950,159319.0
18962,164294.0
18970,166389.0
18982,167668.0
18990,167455.0
19002,166526.0
19010,164471.0
19019,162134.0
19031,160413.0
19039,158492.0
19051,157421.0
19060,156720.0
19072,156003.0
19081,156014.0
19093,155661.0
19101,155590.0
19110,155501.0
19122,155214.0
19130,155377.0
19142,155072.0
19150,154815.0
19162,154802.0
19171,154107.0
19183,154534.0
19191,154045.0
19203,153826.0
19212,154543.0
19224,154136.0
19232,154427.0
19240,154764.0
19253,154763.0
19261,155090.0
19273,154403.0
19282,154352.0
19293,154393.0
19302,153934.0
19314,154275.0
19322,153256.0
19330,153205.0
19343,153148.0
19351,152823.0
19363,153050.0
19371,152213.0
19384,152504.0
19392,152611.0
19400,151900.0
19413,152363.0
19420,152156.0
19433,152199.0
19441,152292.0
19453,151767.0
19462,152132.0
19474,151737.0
19482,151786.0
19490,151939.0
19503,152064.0
19511,151453.0
19523,151444.0
19531,151453.0
19543,151646.0
19552,151597.0
19564,151366.0
19572,151291.0
19580,151116.0
19593,151797.0
19601,151258.0
19613,151619.0
19622,151266.0
19633,151535.0
19641,151684.0
19654,151175.0
19662,151262.0
19670,150971.0
19682,151564.0
19690,153069.0
19703,154744.0
19711,158247.0
19723,161292.0
19731,164719.0
19740,166742.0
19753,166685.0
19761,165932.0
19773,163909.0
19781,162514.0
19793,160063.0
19802,157618.0
19814,157015.0
19822,155528.0
19834,155579.0
19842,155210.0
19854,154523.0
19863,154836.0
19871,153965.0
19883,154220.0
19892,154691.0
19904,153930.0
19912,154023.0
19924,153356.0
19932,153391.0
19944,153912.0
19953,153559.0
19961,154000.0
19973,154217.0
19981,154418.0
19993,155145.0
20002,154874.0
20014,155267.0
20022,155002.0
20034,154613.0
20043,154678.0
20051,154369.0
20063,154580.0
20072,153627.0
20084,153478.0
20092,153639.0
20104,152998.0
20113,152999.0
20125,152756.0
20133,152719.0
20141,153060.0
20154,152545.0
20162,152654.0
20174,152225.0
20183,152404.0
20195,152603.0
20203,152046.0
20211,152495.0
20224,152230.0
20232,152371.0
20244,152422.0
20252,152165.0
20264,152352.0
20273,152341.0
20285,152528.0
20293,152555.0
20301,152084.0
20314,152305.0
20322,152010.0
20334,151947.0
20342,152276.0
20354,151789.0
20363,152224.0
20375,152343.0
20383,152526.0
20391,154453.0
20403,156314.0
20411,159861.0
20423,163210.0
20432,166493.0
20444,168596.0
20453,168163.0
20465,167250.0
20473,165327.0
20485,162308.0
20494,161115.0
20506,158870.0
20514,158225.0
20522,156892.0
20534,156773.0
20543,156834.0
20555,155873.0
20563,156228.0
20575,156015.0
20584,155912.0
20596,155999.0
20604,155610.0
20612,155727.0
20625,155072.0
20633,154959.0
20645,155418.0
20653,154875.0
20665,155534.0
20674,155389.0
20682,155512.0
20694,156251.0
20703,155530.0
20715,155873.0
20723,155998.0
20735,155533.0
20743,155618.0
20756,154995.0
20764,154876.0
20772,154945.0
20784,154654.0
20793,154587.0
20805,153806.0
20813,154159.0
20825,153500.0
20834,153659.0
20846,153566.0
20854,153427.0
20862,153700.0
20875,153083.0
20883,153296.0
20895,153531.0
20903,152948.0
20915,153523.0
20924,153162.0
20936,153353.0
20944,153268.0
20952,152817.0
20964,152958.0
20973,152691.0
20985,152988.0
20993,153167.0
21005,152874.0
21014,153231.0
21022,153052.0
21034,153251.0
21042,153628.0
21054,152719.0
21063,152836.0
21075,152493.0
21083,152564.0
21095,153465.0
21104,152818.0
21112,154257.0
21124,156660.0
21136,160993.0
21144,165664.0
21153,168523.0
21165,170516.0
21173,169997.0
21185,168894.0
21194,167933.0
21206,165594.0
21214,163665.0
21226,161116.0
21235,160083.0
21243,159818.0
21255,158699.0
21263,158434.0
21275,158635.0
21284,158158.0
21297,158861.0
21305,158066.0
21317,158399.0
21325,158226.0
21333,157315.0
21345,157156.0
21354,156489.0
21366,156738.0
21374,156693.0
21386,156778.0
21395,157175.0
21407,156840.0
21415,157031.0
21423,157420.0
21435,157123.0
21444,157322.0
21456,156837.0
21465,156774.0
21477,156947.0
21485,156736.0
21493,156581.0
21505,155970.0
21514,155807.0
21526,155238.0
21534,155075.0
21546,155196.0
21555,154259.0
21567,154442.0
21574,154277.0
21583,154230.0
21595,154541.0
21603,153834.0
21615,154555.0
21624,154134.0
21636,154613.0
21644,154462.0
21656,153979.0
21664,154106.0
21673,153825.0
21685,153518.0
21693,153971.0
21705,153486.0
21714,153621.0
21727,153532.0
21735,153339.0
21747,153366.0
21755,153193.0
21763,153394.0
21775,153609.0
21788,153414.0
21796,153301.0
21805,152772.0
21817,153117.0
21825,153458.0
21837,153487.0
21845,155220.0
21858,157685.0
21866,160592.0
21878,165001.0
21887,167390.0
21895,167665.0
21907,167222.0
21915,167547.0
21927,166114.0
21935,163723.0
21948,162154.0
21956,159165.0
21964,158158.0
21976,156847.0
21985,156008.0
21997,155843.0
22005,155012.0
22017,155259.0
22025,155310.0
22037,155375.0
22045,155078.0
22054,154225.0
22066,154066.0
22075,153429.0
22087,152582.0
22095,152949.0
22107,152998.0
22115,153351.0
22127,153394.0
22136,153679.0
22144,154080.0
22157,153397.0
22165,153806.0
22177,153921.0
22185,153364.0
22197,153653.0
22206,152702.0
22218,152489.0
22226,152330.0
22235,151717.0
22247,151750.0
22255,151595.0
22267,150314.0
22275,149821.0
22287,149364.0
22296,149619.0
22304,149256.0
22316,149429.0
22324,149522.0
22337,148853.0
22345,149116.0
22357,148597.0
22365,148832.0
22378,149109.0
22386,148622.0
22394,148897.0
22407,148542.0
22415,148311.0
22427,148420.0
22435,148225.0
22447,148808.0
22455,148159.0
22467,147636.0
22476,147557.0
22488,147096.0
22496,147487.0
22508,147070.0
22517,147337.0
22525,147360.0
22537,147049.0
22545,147238.0
22558,146825.0
22566,146646.0
22579,146805.0
22587,147140.0
22602,149375.0
22607,150850.0
22615,156761.0
22627,161380.0
22636,163313.0
22648,164702.0
22656,166461.0
22668,164502.0
22677,163749.0
22689,161780.0
22697,160589.0
22705,158026.0
22718,156701.0
22726,155038.0
22738,153501.0
22746,153274.0
22759,152661.0
22767,152976.0
22775,152915.0
22788,153034.0
22796,152883.0
22808,152106.0
22816,151451.0
22828,151126.0
22836,149799.0
22849,150602.0
22857,150035.0
22865,150620.0
22878,150981.0
22886,151494.0
22898,151677.0
22906,151720.0
22919,152007.0
22927,151786.0
22943,151433.0
22947,151386.0
22955,150345.0
22967,150366.0
22975,150283.0
22988,149166.0
22996,148929.0
23009,148214.0
23017,148269.0
23028,148000.0
23037,147673.0
23045,147900.0
23057,147179.0
23065,146190.0
23078,146607.0
23086,145944.0
23098,146215.0
23106,145684.0
23114,145805.0
23127,145968.0
23139,145465.0
23147,145958.0
23160,145685.0
23168,145714.0
23176,145731.0
23189,145590.0
23197,145841.0
23209,145650.0
23217,145763.0
23229,146172.0
23238,145415.0
23246,145674.0
23258,145461.0
23266,144254.0
23279,144183.0
23287,143786.0
23299,143695.0
23307,143776.0
23320,143633.0
23328,143686.0
23336,143929.0
23349,145570.0
23357,148347.0
23369,152458.0
23377,157373.0
23390,159602.0
23398,162709.0
23409,163604.0
23417,163267.0
23426,162918.0
23438,161377.0
23446,160224.0
23459,158341.0
23467,155596.0
23479,154625.0
23487,153078.0
23500,152927.0
23508,152452.0
23516,152737.0
23529,152924.0
23536,152339.0
23549,152602.0
23557,152287.0
23569,151744.0
23578,151311.0
23586,150256.0
23598,149865.0
23607,148934.0
23619,149249.0
23627,149566.0
23639,149317.0
23647,150032.0
23660,150775.0
23668,149420.0
23676,150163.0
23688,149488.0
23697,149765.0
23709,149358.0
23717,148735.0
23729,148248.0
23737,147645.0
23750,147172.0
23758,146261.0
23766,145676.0
23778,145397.0
23790,144992.0
23799,144933.0
23807,144734.0
23819,144199.0
23827,144286.0
23840,143777.0
23848,144090.0
23861,143931.0
23869,142718.0
23881,142507.0
23889,142140.0
23897,142467.0
23909,142408.0
23917,142591.0
23930,142828.0
23939,142607.0
23950,142714.0
23959,142115.0
23971,142358.0
23979,142649.0
23987,142286.0
24000,142573.0
24008,142254.0
24020,142333.0
24029,142680.0
24041,142313.0
24049,142684.0
24057,142271.0
24069,141912.0
24078,141731.0
24089,141536.0
24097,141455.0
24110,141518.0
24118,141325.0
24130,141408.0
24138,140759.0
24147,141262.0
24159,141795.0
24167,145166.0
24179,149603.0
24188,153090.0
24201,156385.0
24209,159160.0
24221,159873.0
24229,159754.0
24237,158541.0
24250,158694.0
24258,157529.0
24269,154132.0
24278,153601.0
24291,152242.0
24298,151773.0
24311,151408.0
24319,150875.0
24327,151230.0
24340,150669.0
24348,151408.0
24360,151473.0
24368,151340.0
24381,151391.0
24389,150362.0
24397,150125.0
24410,148846.0
24418,148003.0
24430,147930.0
24442,147681.0
24450,147996.0
24458,148721.0
24471,147890.0
24479,148567.0
24491,148378.0
24499,148635.0
24511,148476.0
24519,147953.0
24528,147988.0
24540,147079.0
24548,146910.0
24561,146359.0
24569,145678.0
24581,145553.0
24589,144676.0
24602,144157.0
24610,144008.0
24618,143551.0
24630,143206.0
24639,142865.0
24650,142764.0
24659,142315.0
24671,140830.0
24679,141321.0
24692,140498.0
24700,140697.0
24708,140758.0
24720,140847.0
24728,140550.0
24740,140233.0
24749,140602.0
24761,140373.0
24770,140498.0
24782,140567.0
24790,140216.0
24798,140287.0
24810,140004.0
24819,139725.0
24831,140142.0
24839,139897.0
24851,140104.0
24859,140337.0
24868,138828.0
24880,138913.0
24889,138626.0
24901,138821.0
24909,138134.0
24921,138713.0
24929,138562.0
24942,137731.0
24950,138044.0
24958,137941.0
24970,137698.0
24978,138049.0
24991,138472.0
24999,141741.0
25011,146832.0
25019,149423.0
25031,153366.0
25040,153813.0
25048,154188.0
25060,154283.0
25068,151430.0
25081,151293.0
25089,150234.0
25101,149785.0
25110,149278.0
25121,148163.0
25130,148024.0
25142,146871.0
25151,146622.0
25162,147125.0
25171,146616.0
25179,147483.0
25192,146742.0
25200,146971.0
25212,146862.0
25220,146763.0
25232,146242.0
25241,145307.0
25253,145350.0
25261,145399.0
25269,144536.0
25281,145001.0
25289,145044.0
25302,145369.0
25310,145406.0
25322,145315.0
25331,145634.0
25339,145289.0
25351,144942.0
25359,144565.0
25371,143864.0
25379,143879.0
25392,143124.0
25400,142863.0
25413,142872.0
25421,141897.0
25429,142014.0
25441,141419.0
25449,140654.0
25462,141285.0
25470,138670.0
25482,139253.0
25491,139026.0
25503,138909.0
25511,138826.0
25519,138611.0
25531,138814.0
25539,138329.0
25552,138626.0
25560,138831.0
25572,138262.0
25581,138573.0
25593,138182.0
25601,138671.0
25609,138908.0
25621,138083.0
25629,138684.0
25642,138191.0
25650,138244.0
25664,138339.0
25671,136882.0
25679,137353.0
25691,136986.0
25700,136847.0
25712,137192.0
25720,136887.0
25732,137084.0
25740,136553.0
25753,136824.0
25761,136549.0
25772,136058.0
25781,135923.0
25793,136346.0
25802,138525.0
25810,141698.0
25822,144531.0
25830,148770.0
25843,149295.0
25851,150040.0
25863,150113.0
25871,147636.0
25884,147313.0
25892,146524.0
25900,146729.0
25912,146160.0
25921,145477.0
25933,145312.0
25941,144483.0
25953,144292.0
25961,144401.0
25974,144264.0
25981,144693.0
25990,144118.0
26002,144483.0
26011,144736.0
26023,143945.0
26031,144238.0
26043,143375.0
26052,143364.0
26064,143401.0
26072,141728.0
26080,142249.0
26093,141582.0
26101,142233.0
26113,142494.0
26121,142457.0
26134,142594.0
26142,142359.0
26150,142564.0
26162,142573.0
26171,141868.0
26183,142063.0
26191,141340.0
26203,141499.0
26211,141320.0
26223,140833.0
26232,140666.0
26240,139765.0
26252,139560.0
26260,139747.0
26273,137884.0
26281,137841.0
26293,137372.0
26301,137237.0
26314,137554.0
26322,137279.0
26330,137524.0
26343,137419.0
26351,137290.0
26363,137677.0
26371,137270.0
26383,137291.0
26392,137134.0
26404,137125.0
26412,137124.0
26424,136691.0
26433,136482.0
26445,136531.0
26453,136736.0
26461,136781.0
26474,135256.0
26482,135739.0
26494,135554.0
26502,135155.0
26514,135204.0
26523,134569.0
26535,134936.0
26543,134909.0
26551,134828.0
26564,134891.0
26572,134162.0
26584,134527.0
26592,133982.0
26604,134433.0
26613,135408.0
26621,137147.0
26633,140446.0
26641,143221.0
26654,144608.0
26663,144907.0
26674,142942.0
26682,143041.0
26695,142878.0
26703,142587.0
26711,142698.0
26723,142025.0
26732,142276.0
26744,141313.0
26752,141110.0
26764,141001.0
26773,140374.0
26785,140531.0
26793,140112.0
26801,140553.0
26813,140922.0
26822,140565.0
26834,140636.0
26842,140397.0
26854,140322.0
26862,140331.0
26875,138590.0
26883,138683.0
26891,138574.0
26903,138421.0
26911,139080.0
26924,138487.0
26932,139004.0
26944,138697.0
26952,138848.0
26961,139181.0
26973,138674.0
26981,138525.0
26993,138384.0
27001,137971.0
27014,138270.0
27022,137371.0
27035,137294.0
27043,137103.0
27051,136814.0
27063,136799.0
27071,135352.0
27084,135369.0
27092,135206.0
27104,134697.0
27112,134968.0
27125,134571.0
27133,134548.0
27145,134575.0
27153,134542.0
27166,134725.0
27174,134042.0
27182,134219.0
27194,134322.0
27202,134137.0
27215,133984.0
27223,133653.0
27235,134024.0
27243,133825.0
27256,134116.0
27264,133675.0
27272,132776.0
27284,132657.0
27293,132546.0
27305,132905.0
27313,132556.0
27325,132275.0
27334,132354.0
27346,131927.0
27354,132064.0
27362,132235.0
27374,131634.0
27383,131967.0
27395,131386.0
27403,131489.0
27416,131804.0
27424,131497.0
27432,132910.0
27444,135181.0
27453,138292.0
27465,139707.0
27473,138160.0
27485,138033.0
27493,138554.0
27505,138525.0
27514,138442.0
27522,137821.0
27534,137948.0
27542,137171.0
27555,136876.0
27562,137011.0
27575,136126.0
27583,136315.0
27595,136400.0
27603,136243.0
27612,136612.0
27624,135809.0
27632,135992.0
27644,136151.0
27653,135984.0
27666,135883.0
27674,134080.0
27686,133875.0
27694,133714.0
27703,134125.0
27715,134276.0
27723,133899.0
27735,134210.0
27744,134397.0
27756,134370.0
27764,134505.0
27776,134202.0
27784,134429.0
27796,134278.0
27805,134205.0
27817,134238.0
27825,133973.0
27833,134004.0
27845,133589.0
27853,133308.0
27865,133385.0
27874,131400.0
27886,131497.0
27894,131048.0
27903,131243.0
27915,131256.0
27923,130689.0
27935,131078.0
27943,130835.0
27956,131102.0
27965,131055.0
27977,130588.0
27985,130711.0
27993,130662.0
28006,130835.0
28014,131330.0
28026,130637.0
28034,131032.0
28047,130841.0
28055,130854.0
28067,131011.0
28075,129844.0
28083,130433.0
28095,130610.0
28104,130211.0
28116,130298.0
28124,130065.0
28136,130180.0
28145,130371.0
28157,129836.0
28165,130185.0
28173,129962.0
28185,131649.0
28194,133320.0
28206,134189.0
28214,134808.0
28226,135063.0
28234,135450.0
28243,135945.0
28255,135458.0
28263,136065.0
28275,133354.0
28284,133225.0
28296,133174.0
28304,132337.0
28317,132780.0
28325,132223.0
28333,132138.0
28345,132385.0
28354,132096.0
28366,132479.0
28374,132142.0
28386,132517.0
28394,132290.0
28407,132399.0
28415,132318.0
28427,131463.0
28435,131938.0
28448,131849.0
28456,131764.0
28464,132401.0
28476,131004.0
28485,130963.0
28497,131266.0
28505,131235.0
28517,131490.0
28525,131097.0
28538,131312.0
28546,131433.0
28554,130874.0
28566,131231.0
28575,130856.0
28587,130825.0
28595,131142.0
28608,130121.0
28616,130648.0
28627,130349.0
28636,130276.0
28644,130069.0
28657,129704.0
28665,130295.0
28677,128434.0
28685,128707.0
28697,129016.0
28705,128263.0
28714,128822.0
28727,128287.0
28734,128794.0
28747,128809.0
28755,128516.0
28767,129031.0
28776,128706.0
28788,129041.0
28796,129180.0
28804,128691.0
28816,129208.0
28825,128515.0
28837,128802.0
28844,129139.0
28858,128380.0
28866,129019.0
28878,127604.0
28886,127511.0
28895,127810.0
28907,128107.0
28915,129060.0
28927,129895.0
28935,131090.0
28947,131543.0
28955,131326.0
28968,131987.0
28976,131586.0
28984,131923.0
28996,131724.0
29005,131651.0
29017,131520.0
29025,131201.0
29038,131318.0
29046,131449.0
29054,131016.0
29066,130861.0
29079,129344.0
29087,129173.0
29099,129338.0
29107,129277.0
29115,129534.0
29128,129449.0
29136,129658.0
29147,129543.0
29156,129074.0
29169,129337.0
29177,129180.0
29185,129379.0
29197,129028.0
29205,129117.0
29218,129420.0
29225,129117.0
29238,129752.0
29246,129625.0
29258,129048.0
29266,129643.0
29275,128006.0
29288,127917.0
29296,128262.0
29308,127781.0
29316,128176.0
29328,127709.0
29336,127564.0
29348,128123.0
29357,127564.0
29365,127891.0
29378,127122.0
29386,127523.0
29398,127660.0
29406,127389.0
29419,127626.0
29427,127161.0
29439,127290.0
29447,127739.0
29455,126826.0
29468,127577.0
29476,126288.0
29488,126567.0
29496,126424.0
29508,126037.0
29517,126386.0
29525,126047.0
29537,126356.0
29545,126745.0
29558,126362.0
29566,126339.0
29578,126118.0
29586,126601.0
29599,126838.0
29607,126219.0
29615,126530.0
29628,126175.0
29636,126214.0
29648,126307.0
29656,126338.0
29668,127449.0
29677,126318.0
29689,127071.0
29696,127874.0
29705,128153.0
29717,128864.0
29730,128519.0
29738,129066.0
29746,128677.0
29758,127958.0
29766,128283.0
29779,128082.0
29787,128163.0
29799,128068.0
29807,127669.0
29819,128004.0
29828,127799.0
29836,127834.0
29848,128247.0
29856,127626.0
29869,128055.0
29877,125572.0
29889,125803.0
29897,126108.0
29909,125633.0
29918,125696.0
29926,125487.0
29939,125446.0
29947,126003.0
29958,125662.0
29967,125847.0
29979,125334.0
29987,125861.0
29996,126032.0
30008,125825.0
30017,125788.0
30028,126299.0
30037,125736.0
30049,126083.0
30057,125740.0
30069,126041.0
30078,124672.0
30086,123891.0
30098,124206.0
30106,123627.0
30119,124076.0
30127,123669.0
30139,123822.0
30147,124559.0
30160,123536.0
30168,124515.0
30176,123942.0
30188,123563.0
30197,124484.0
30209,123899.0
30217,124330.0
30229,124225.0
30238,123868.0
30250,124517.0
30258,124040.0
30266,124363.0
30278,123006.0
30287,122601.0
30299,122966.0
30307,122843.0
30319,122928.0
30328,122945.0
30336,122680.0
30348,123347.0
30356,122772.0
30369,123005.0
30381,122914.0
30389,123041.0
30397,123352.0
30409,122493.0
30418,122968.0
30429,122973.0
30438,122986.0
30451,123077.0
30459,122804.0
30467,123429.0
30479,122470.0
30488,122615.0
30499,123598.0
30507,124099.0
30520,124478.0
30528,124665.0
30540,124904.0
30549,125235.0
30557,124432.0
30569,124713.0
30578,124256.0
30589,124089.0
30598,124172.0
30610,123917.0
30618,124064.0
30631,124327.0
30639,124178.0
30647,124487.0
30659,123940.0
30667,124409.0
30679,121768.0
30688,121975.0
30700,122346.0
30708,122039.0
30721,122080.0
30729,122471.0
30738,122290.0
30749,122503.0
30757,122166.0
30770,122677.0
30778,122614.0
30791,122617.0
30799,123124.0
30807,122801.0
30819,122654.0
30827,122843.0
30839,122316.0
30848,122961.0
30860,122426.0
30868,122681.0
30880,121264.0
30889,121021.0
30897,121604.0
30909,121021.0
30918,121212.0
30930,121485.0
30938,121398.0
30950,121819.0
30958,121040.0
30970,121403.0
30979,121504.0
30987,121353.0
30999,121720.0
31007,121557.0
31020,121528.0
31028,122031.0
31041,121704.0
31049,122125.0
31060,121692.0
31069,122109.0
31081,120066.0
31089,120011.0
31102,120414.0
31106,120137.0
31118,120708.0
31131,120645.0
31139,120526.0
31150,120603.0
31159,120414.0
31171,120831.0
31179,120570.0
31192,120561.0
31200,120804.0
31208,120381.0
31221,120432.0
31229,121003.0
31240,120362.0
31249,121331.0
31261,121420.0
31269,122007.0
31278,120900.0
31290,121299.0
31298,121854.0
31311,121267.0
31319,122022.0
31331,122105.0
31339,121480.0
31352,121779.0
31360,121138.0
31368,121377.0
31380,121236.0
31388,120959.0
31401,121074.0
31409,121081.0
31421,121042.0
31429,121401.0
31441,121226.0
31449,121641.0
31458,121084.0
31470,121245.0
31478,119252.0
31490,119205.0
31499,119152.0
31511,119359.0
31519,119244.0
31531,119691.0
31540,119362.0
31548,119941.0
31560,119820.0
31568,119777.0
31581,119890.0
31589,119871.0
31602,119844.0
31610,119595.0
31618,119610.0
31630,119903.0
31639,119632.0
31651,119955.0
31659,119520.0
31671,119979.0
31680,118298.0
31692,118299.0
31700,118376.0
31712,118123.0
31720,118526.0
31729,118497.0
31741,118022.0
31749,118615.0
31761,118296.0
31769,118573.0
31782,118566.0
31790,118349.0
31802,118768.0
31810,118711.0
31822,118610.0
31831,118985.0
31839,118716.0
31851,118851.0
31859,118308.0
31871,119089.0
31880,116650.0
31892,116725.0
31900,117200.0
31913,116747.0
31921,116916.0
31929,117307.0
31942,116878.0
31950,117403.0
31962,116822.0
31970,117015.0
31982,117314.0
31991,116903.0
32003,117726.0
32011,117187.0
32019,117144.0
32032,117701.0
32040,117538.0
32052,117817.0
32060,117444.0
32072,117609.0
32080,116744.0
32088,116427.0
32101,117098.0
32109,117499.0
32122,117780.0
32130,118303.0
32142,118678.0
32150,118879.0
32162,118910.0
32171,118687.0
32179,118664.0
32191,118625.0
32199,118734.0
32212,118625.0
32220,118290.0
32232,118835.0
32241,118396.0
32252,119019.0
32261,118434.0
32269,119097.0
32282,116834.0
32290,116651.0
32302,116868.0
32310,117027.0
32322,117168.0
32331,117149.0
32343,117176.0
32351,117335.0
32359,117026.0
32372,117341.0
32380,117248.0
32392,117023.0
32400,117586.0
32412,117329.0
32421,117444.0
32432,117413.0
32441,117180.0
32453,117613.0
32462,117214.0
32474,117587.0
32482,116052.0
32491,115941.0
32502,116260.0
32510,115927.0
32522,116178.0
32531,116309.0
32543,115766.0
32551,116311.0
32559,116018.0
32572,116507.0
32580,116322.0
32593,115953.0
32601,116566.0
32612,116253.0
32621,116436.0
32633,116779.0
32641,116426.0
32650,117035.0
32662,116054.0
32670,116725.0
32683,114818.0
32691,114687.0
32703,114904.0
32712,114699.0
32724,114902.0
32732,115303.0
32740,114930.0
32752,115487.0
32760,115386.0
32773,115399.0
32781,115512.0
32793,115157.0
32801,114852.0
32814,115247.0
32822,115246.0
32830,115453.0
32843,115380.0
32851,115459.0
32862,115480.0
32871,115559.0
32883,114162.0
32891,114283.0
32900,114232.0
32912,113955.0
32920,114288.0
32933,114635.0
32941,114450.0
32953,115171.0
32961,115628.0
32973,115901.0
32982,116264.0
32990,116277.0
33002,116324.0
33010,116281.0
33023,116150.0
33031,116453.0
33043,115758.0
33051,116107.0
33064,116118.0
33072,116089.0
33084,114444.0
33092,113565.0
33104,114522.0
33113,114255.0
33121,114612.0
33133,115017.0
33141,114488.0
33154,114835.0
33162,114642.0
33174,114789.0
33182,114962.0
33194,114883.0
33203,115064.0
33211,114845.0
33224,114644.0
33232,115151.0
33243,114618.0
33252,115117.0
33264,115160.0
33273,115191.0
33285,114160.0
33293,113701.0
33301,114056.0
33314,113803.0
33322,114054.0
33334,114095.0
33342,113330.0
33354,113747.0
33363,113736.0
33371,113877.0
33383,114354.0
33391,113691.0
33403,114114.0
33412,114145.0
33424,114356.0
33432,114503.0
33444,113978.0
33453,114219.0
33461,114272.0
33473,114119.0
33481,112866.0
33493,112779.0
33502,113130.0
33514,113057.0
33522,113274.0
33535,113383.0
33543,112922.0
33551,113257.0
33563,113400.0
33572,113645.0
33583,113644.0
33592,113133.0
33604,113652.0
33613,113413.0
33624,113760.0
33633,113411.0
33641,113068.0
33653,113839.0
33661,113666.0
33674,113975.0
33682,112778.0
33694,112397.0
33703,112762.0
33715,112741.0
33723,113100.0
33731,112715.0
33744,112274.0
33756,112721.0
33764,112568.0
33772,112933.0
33785,113762.0
33793,113669.0
33805,114274.0
33813,114321.0
33825,114846.0
33833,115029.0
33842,114716.0
33854,114929.0
33862,114668.0
33875,114643.0
33883,112734.0
33895,112457.0
33903,112546.0
33915,112919.0
33924,112598.0
33932,113147.0
33944,112824.0
33952,113357.0
33965,113518.0
33973,113127.0
33985,113666.0
33994,112945.0
34006,113552.0
34014,113161.0
34022,113120.0
34034,113259.0
34043,113306.0
34055,113841.0
34063,113708.0
34075,113743.0
34084,112268.0
34096,112231.0
34104,112400.0
34112,112405.0
34124,112308.0
34132,112627.0
34145,112344.0
34153,112097.0
34165,112394.0
34173,112539.0
34182,112530.0
34194,112313.0
34202,112786.0
34214,112753.0
34222,112368.0
34235,112717.0
34244,112164.0
34255,112715.0
34264,113298.0
34272,112783.0
34284,111862.0
34292,111233.0
34305,111534.0
34313,111551.0
34325,111786.0
34333,112005.0
34346,111454.0
34354,112105.0
34362,111752.0
34374,111349.0
34382,112018.0
34395,111525.0
34403,111952.0
34415,111927.0
34423,112022.0
34435,112459.0
34444,111988.0
34456,112211.0
34464,112510.0
34477,112085.0
34485,111470.0
34493,110983.0
34505,111150.0
34514,111535.0
34526,111122.0
34534,111637.0
34546,110978.0
34555,111559.0
34567,112232.0
34575,112045.0
34583,112898.0
34595,112313.0
34604,112602.0
34616,112963.0
34624,112686.0
34636,113181.0
34645,112906.0
34653,112945.0
34665,113086.0
34673,112833.0
34686,111340.0
34694,111275.0
34706,111416.0
34714,111657.0
34727,111424.0
34735,111687.0
34743,111182.0
34755,111887.0
34763,111914.0
34776,111543.0
34784,112152.0
34796,111369.0
34804,111866.0
34817,111769.0
34825,111670.0
34833,111743.0
34845,111704.0
34853,112015.0
34866,111778.0
34874,111677.0
34886,110816.0
34894,110551.0
34907,110928.0
34915,111165.0
34923,110606.0
34935,111087.0
34943,110590.0
34955,111271.0
34964,110822.0
34977,110877.0
34985,111388.0
34993,110873.0
35005,111236.0
35014,111175.0
35026,111096.0
35034,111159.0
35046,111018.0
35055,111321.0
35067,111538.0
35075,111117.0
35087,109956.0
35096,109457.0
35108,110208.0
35116,110305.0
35124,110016.0
35136,110065.0
35145,109596.0
35157,110075.0
35165,110452.0
35177,110085.0
35185,110726.0
35198,109805.0
35206,110466.0
35214,110955.0
35226,110540.0
35235,110991.0
35247,110514.0
35255,110633.0
35267,110646.0
35276,110749.0
35288,109810.0
35296,109459.0
35304,109860.0
35317,110111.0
35325,109552.0
35337,110097.0
35345,110264.0
35357,110327.0
35366,110862.0
35377,111043.0
35386,111302.0
35394,110879.0
35406,111108.0
35414,111615.0
35427,111372.0
35435,111025.0
35448,110976.0
35456,111165.0
35464,111170.0
35476,110819.0
35485,109768.0
35497,109593.0
35505,109854.0
35517,109611.0
35525,109598.0
35537,109669.0
35545,109710.0
35553,109957.0
35566,110232.0
35574,109571.0
35586,110032.0
35594,110045.0
35607,109890.0
35615,110053.0
35628,109508.0
35636,110155.0
35644,109440.0
35656,109615.0
35664,110038.0
35677,109785.0
35685,108682.0
35697,108561.0
35705,108668.0
35718,109235.0
35725,108732.0
35738,109167.0
35746,108928.0
35758,109047.0
35766,109236.0
35775,109051.0
35787,109162.0
35795,109213.0
35808,109046.0
35816,109347.0
35828,109066.0
35837,109263.0
35849,109276.0
35857,109611.0
35865,109738.0
35878,109387.0
35886,108184.0
35898,107777.0
35907,108032.0
35918,108491.0
35926,107958.0
35935,108443.0
35947,108620.0
35955,108357.0
35968,108540.0
35976,108421.0
35988,108690.0
35996,108485.0
36009,108250.0
36017,108509.0
36025,108362.0
36038,108529.0
36046,108514.0
36058,108713.0
36066,108994.0
36078,108421.0
36087,108116.0
36099,107695.0
36107,108096.0
36115,108135.0
36127,107490.0
36135,108041.0
36147,107744.0
36156,107901.0
36168,108214.0
36176,108539.0
36188,108930.0
36197,108865.0
36205,109236.0
36217,109281.0
36226,109030.0
36238,109329.0
36246,108928.0
36259,109211.0
36267,109410.0
36275,109007.0
36287,108238.0
36295,107919.0
36307,107978.0
36316,108133.0
36328,107406.0
36336,108129.0
36349,107928.0
36357,107627.0
36369,108236.0
36377,107927.0
36389,108156.0
36397,107839.0
36406,107880.0
36418,108125.0
36426,107670.0
36439,108093.0
36447,107746.0
36459,108119.0
36467,108286.0
36479,107711.0
36487,107530.0
36496,106967.0
36508,107546.0
36516,107717.0
36529,107088.0
36537,107505.0
36549,107492.0
36557,107301.0
36569,107658.0
36577,107595.0
36586,107546.0
36599,107505.0
36607,107768.0
36619,108287.0
36627,107930.0
36639,108037.0
36647,108256.0
36660,108147.0
36668,108230.0
36676,107637.0
36689,107500.0
36697,107119.0
36709,107334.0
36717,107375.0
36730,107216.0
36738,107689.0
36746,107496.0
36758,107671.0
36767,107774.0
36779,107409.0
36787,107460.0
36798,107553.0
36807,107780.0
36820,108135.0
36828,107772.0
36836,108099.0
36848,107968.0
36857,108019.0
36869,108048.0
36877,107667.0
36889,107266.0
36897,107251.0
36910,107160.0
36918,107695.0
36926,107376.0
36938,107355.0
36947,107426.0
36958,107897.0
36967,108416.0
36979,107865.0
36987,108408.0
37000,108745.0
37008,108608.0
37020,108953.0
37028,108616.0
37041,109031.0
37048,108614.0
37056,108603.0
37069,109084.0
37077,108289.0
37089,107582.0
37097,107937.0
37110,107490.0
37119,107875.0
37131,107262.0
37139,107935.0
37148,108152.0
37160,107945.0
37168,108278.0
37180,107723.0
37188,107828.0
37200,108379.0
37209,107982.0
37217,108305.0
37229,107824.0
37238,108191.0
37250,108066.0
37258,107703.0
37269,108320.0
37278,107903.0
37291,107680.0
37299,107797.0
37307,107454.0
37319,108007.0
37327,107372.0
37340,107633.0
37348,107824.0
37360,107975.0
37368,108000.0
37380,107491.0
37388,107686.0
37397,107763.0
37409,107680.0
37417,108141.0
37429,107842.0
37438,108045.0
37450,108278.0
37458,107985.0
37471,108010.0
37479,107939.0
37487,107736.0
37500,107333.0
37508,107662.0
37519,107887.0
37528,107446.0
37540,107509.0
37549,107324.0
37557,107603.0
37569,108082.0
37577,107401.0
37589,107734.0
37598,107765.0
37610,107766.0
37618,107769.0
37630,107606.0
37638,107813.0
37647,107680.0
37659,107665.0
37671,108122.0
37679,107611.0
37687,107160.0
37700,107895.0
37708,107228.0
37720,108045.0
37728,107844.0
37741,108337.0
37749,108690.0
37761,108013.0
37770,108522.0
37778,108195.0
37790,108480.0
37798,108691.0
37811,108110.0
37819,108237.0
37831,108010.0
37839,108323.0
37851,108556.0
37859,108421.0
37868,108536.0
37880,108337.0
37888,107728.0
37901,108025.0
37909,107970.0
37921,108085.0
37930,107782.0
37941,107951.0
37950,107996.0
37958,107831.0
37971,108512.0
37979,107759.0
37990,108142.0
37999,108173.0
38011,108296.0
38019,108189.0
38028,108048.0
38040,108551.0
38048,108156.0
38061,107981.0
38069,108332.0
38081,107865.0
38089,107666.0
38101,107457.0
38110,107176.0
38118,107953.0
38130,107708.0
38138,108023.0
38150,107786.0
38159,107497.0
38171,107972.0
38179,107625.0
38192,107740.0
38200,107751.0
38208,107540.0
38220,108085.0
38228,107646.0
38241,107281.0
38249,107710.0
38261,107567.0
38269,107958.0
38282,107703.0
38290,107226.0
38298,107543.0
38311,107010.0
38319,107457.0
38331,107020.0
38339,107333.0
38352,107590.0
38360,107005.0
38371,107728.0
38379,107083.0
38392,107280.0
38401,107471.0
38413,107182.0
38421,107707.0
38429,106906.0
38441,107091.0
38449,107748.0
38461,107357.0
38470,107698.0
38482,107957.0
38490,106890.0
38499,107291.0
38511,106898.0
38519,107261.0
38531,106904.0
38539,106943.0
38551,107682.0
38560,107341.0
38572,107786.0
38580,107729.0
38588,107688.0
38601,107777.0
38609,107784.0
38621,107905.0
38629,107922.0
38641,107713.0
38650,108048.0
38662,107493.0
38671,107954.0
38679,107695.0
38692,106550.0
38700,107045.0
38712,106514.0
38720,106835.0
38732,106704.0
38741,106627.0
38753,107028.0
38760,106807.0
38769,107298.0
38781,106799.0
38789,106994.0
38801,107123.0
38810,106588.0
38822,107275.0
38830,107256.0
38839,107209.0
38851,107294.0
38859,106637.0
38871,107092.0
38879,107127.0
38892,105784.0
38900,106503.0
38913,106010.0
38921,106487.0
38929,106310.0
38941,106679.0
38949,106962.0
38962,106693.0
38970,107042.0
38982,106553.0
38990,106212.0
39002,106569.0
39010,106144.0
39022,106617.0
39031,105864.0
39043,106595.0
39051,107050.0
39060,106653.0
39073,106864.0
39081,107137.0
39093,105584.0
39101,106149.0
39113,105798.0
39121,106275.0
39133,106330.0
39142,106003.0
39150,106484.0
39162,105899.0
39171,106366.0
39183,105993.0
39191,106330.0
39203,106427.0
39211,106072.0
39224,106379.0
39232,106582.0
39240,106149.0
39253,106538.0
39261,106107.0
39273,106444.0
39281,106741.0
39293,105508.0
39301,105747.0
39309,105364.0
39322,105729.0
39331,105794.0
39343,106037.0
39351,106366.0
39363,106445.0
39371,106336.0
39383,105983.0
39392,106380.0
39400,106413.0
39412,105956.0
39420,106611.0
39432,106150.0
39440,106595.0
39454,106398.0
39461,106287.0
39474,106784.0
39482,106873.0
39490,105538.0
39502,105703.0
39511,105274.0
39523,105651.0
39531,105686.0
39543,105615.0
39551,106244.0
39564,105573.0
39572,105728.0
39580,105881.0
39592,105800.0
39601,106137.0
39613,105788.0
39621,106049.0
39633,105992.0
39641,106029.0
39654,106066.0
39662,105651.0
39670,106022.0
39682,106173.0
39694,104810.0
39703,105447.0
39711,104906.0
39723,105331.0
39731,105618.0
39739,105477.0
39752,105590.0
39764,105361.0
39772,105660.0
39780,105955.0
39793,105442.0
39801,105901.0
39813,105300.0
39821,105563.0
39834,105952.0
39842,105911.0
39854,105922.0
39862,105813.0
39871,105728.0
39883,105607.0
39891,104278.0
39904,104605.0
39912,104448.0
39924,104973.0
39932,105126.0
39944,105153.0
39953,105524.0
39961,105201.0
39973,105610.0
39981,105509.0
39994,105524.0
40002,105877.0
40014,105498.0
40022,106241.0
40034,105966.0
40043,105957.0
40051,106146.0
40063,105505.0
40072,105988.0
40084,105935.0
40092,104712.0
40104,105133.0
40113,105070.0
40121,105523.0
40133,105526.0
40141,105409.0
40154,105566.0
40162,105107.0
40174,105662.0
40182,105531.0
40195,105486.0
40203,105661.0
40211,105276.0
40223,105613.0
40232,105266.0
40244,105445.0
40252,105686.0
40264,105573.0
40272,105768.0
40284,106087.0
40293,104170.0
40301,105011.0
40313,104590.0
40321,104551.0
40334,105180.0
40342,104873.0
40354,105218.0
40363,104895.0
40375,105548.0
40383,105925.0
40395,105334.0
40404,105755.0
40416,105632.0
40424,105439.0
40432,105552.0
40445,105273.0
40453,105770.0
40465,105191.0
40473,105418.0
40485,105461.0
40494,103972.0
40506,104735.0
40514,104322.0
40522,104583.0
40535,105090.0
40543,104857.0
40555,104858.0
40563,104657.0
40576,104912.0
40584,105087.0
40592,104886.0
40604,105013.0
40612,104570.0
40625,105367.0
40633,104948.0
40645,104587.0
40653,105044.0
40666,104671.0
40674,105120.0
40682,105203.0
40694,103492.0
40703,104139.0
40715,103988.0
40723,104323.0
40735,104532.0
40743,104279.0
40755,104954.0
40764,104309.0
40772,104806.0
40784,104751.0
40792,104798.0
40805,105083.0
40813,104788.0
40825,105203.0
40833,105084.0
40846,104637.0
40854,105208.0
40862,105201.0
40874,105298.0
40883,105639.0
40895,104612.0
40903,104759.0
40915,104588.0
40923,104889.0
40931,104866.0
40944,104139.0
40952,104704.0
40964,104711.0
40972,104698.0
40984,104965.0
40993,104754.0
41005,105075.0
41013,104908.0
41025,105177.0
41034,105288.0
41046,104715.0
41054,105056.0
41062,104499.0
41075,104900.0
41083,105233.0
41095,102800.0
41103,103905.0
41115,103610.0
41124,103963.0
41136,104450.0
41144,104279.0
41152,104584.0
41166,104277.0
41173,104300.0
41185,104265.0
41193,104256.0
41206,104469.0
41214,104396.0
41226,104151.0
41234,104644.0
41242,104191.0
41256,104452.0
41264,104271.0
41276,104526.0
41284,104683.0
41296,102686.0
41305,103567.0
41317,103250.0
41325,103725.0
41333,103778.0
41345,103459.0
41353,103514.0
41366,103643.0
41374,103978.0
41386,103817.0
41394,103606.0
41403,104345.0
41415,103844.0
41423,104011.0
41435,104226.0
41443,103923.0
41456,103844.0
41464,103709.0
41477,103846.0
41485,103941.0
41493,102432.0
41505,102977.0
41514,102734.0
41526,103217.0
41534,103402.0
41546,103099.0
41554,103458.0
41567,103305.0
41575,103506.0
41583,103509.0
41595,103376.0
41603,103649.0
41616,103656.0
41624,103793.0
41636,103660.0
41644,103151.0
41657,103422.0
41665,103241.0
41677,103320.0
41685,103817.0
41697,102068.0
41706,102625.0
41714,102636.0
41726,102891.0
41734,102772.0
41747,102801.0
41755,102824.0
41767,102711.0
41775,102942.0
41787,103011.0
41795,102716.0
41804,103097.0
41816,103070.0
41825,103109.0
41837,103320.0
41845,102987.0
41857,103082.0
41865,103029.0
41874,103092.0
41886,103643.0
41894,101684.0
41906,102573.0
41915,102594.0
41927,102759.0
41935,102946.0
41948,102987.0
41956,103182.0
41964,102889.0
41976,103070.0
41985,103089.0
41997,102738.0
42005,103189.0
42017,102686.0
42025,102719.0
42038,103034.0
42046,102737.0
42054,103044.0
42067,102571.0
42075,103124.0
42087,103409.0
42095,101604.0
42107,102143.0
42116,102344.0
42128,102533.0
42136,102486.0
42144,102143.0
42156,102358.0
42165,102039.0
42177,102308.0
42185,102727.0
42197,102018.0
42206,102573.0
42214,102390.0
42226,102369.0
42234,102766.0
42246,102345.0
42254,102838.0
42267,102451.0
42275,102710.0
42287,103213.0
42295,101300.0
42303,102287.0
42316,102560.0
42324,102353.0
42337,102802.0
42344,102377.0
42357,102450.0
42366,102455.0
42377,102394.0
42385,102859.0
42397,102432.0
42406,102379.0
42418,102708.0
42426,102733.0
42434,103036.0
42447,102179.0
42455,102848.0
42467,102975.0
42475,102628.0
42487,102811.0
42496,101678.0
42509,102065.0
42517,102090.0
42525,102139.0
42537,102552.0
42545,102055.0
42558,102754.0
42566,102231.0
42578,102304.0
42587,102569.0
42599,102120.0
42607,102175.0
42615,102598.0
42627,102341.0
42635,102844.0
42648,102261.0
42656,102824.0
42668,102493.0
42677,102630.0
42685,102581.0
42697,100912.0
42705,101891.0
42718,101986.0
42726,102155.0
42738,102664.0
42746,102291.0
42759,102414.0
42767,102489.0
42775,102428.0
42787,102767.0
42796,102300.0
42808,102569.0
42816,102646.0
42828,102507.0
42836,103006.0
42848,102287.0
42857,102942.0
42865,102647.0
42877,102656.0
42885,103127.0
42897,101542.0
42906,102541.0
42918,102478.0
42926,102409.0
42938,102532.0
42946,102033.0
42955,102228.0
42967,102379.0
42975,102370.0
42988,102555.0
42996,102098.0
43008,102309.0
43016,102476.0
43029,102423.0
43037,102748.0
43049,102307.0
43058,102592.0
43069,102849.0
43078,102880.0
43086,103021.0
43099,101718.0
43107,101783.0
43119,102490.0
43127,102205.0
43139,102606.0
43147,102147.0
43156,102340.0
43168,102663.0
43176,102498.0
43188,102801.0
43197,102494.0
43209,102583.0
43217,102976.0
43229,103049.0
43238,102968.0
43246,102735.0
43258,102968.0
43266,102897.0
43279,102356.0
43287,103159.0
43299,101776.0
43307,102401.0
43319,102344.0
43328,102363.0
43336,102760.0
43348,102531.0
43357,102732.0
43368,102391.0
43377,102466.0
43388,102775.0
43397,102152.0
43409,102689.0
43418,102810.0
43426,102381.0
43438,102860.0
43446,102451.0
43459,102858.0
43467,102373.0
43479,102388.0
43487,102675.0
43495,101070.0
43508,101719.0
43516,102330.0
43529,101895.0
43537,102866.0
43549,102355.0
43557,102728.0
43569,102993.0
43578,102600.0
43586,102587.0
43598,102530.0
43606,102471.0
43618,103104.0
43627,102781.0
43639,103132.0
43647,102587.0
43660,102726.0
43668,103233.0
43680,102804.0
43688,103191.0
43700,102676.0
43709,102781.0
43717,102854.0
43729,102455.0
43737,103162.0
43749,103029.0
43757,102822.0
43769,103185.0
43778,102942.0
43790,103189.0
43798,103248.0
43807,103149.0
43819,102700.0
43827,102993.0
43840,103260.0
43848,103447.0
43860,103360.0
43869,103501.0
43880,103326.0
43889,103399.0
43897,102184.0
43910,102733.0
43918,102866.0
43930,102853.0
43938,103192.0
43950,103049.0
43958,103312.0
43966,103115.0
43979,103028.0
43987,103321.0
44000,102968.0
44008,103081.0
44020,103356.0
44028,103265.0
44041,103492.0
44049,103189.0
44057,103288.0
44069,103251.0
44078,102840.0
44090,103373.0
44098,101994.0
44110,102599.0
44118,103140.0
44130,102685.0
44139,103356.0
44147,102965.0
44159,103028.0
44167,103515.0
44179,102934.0
44188,103773.0
44200,103286.0
44209,103567.0
44221,103212.0
44229,103025.0
44237,103554.0
44249,103071.0
44258,103074.0
44270,103905.0
44278,103486.0
44290,103699.0
44298,102034.0
44311,102803.0
44319,103218.0
44331,102731.0
44339,103374.0
44352,103041.0
44360,103104.0
44368,103421.0
44381,103082.0
44389,103201.0
44401,103292.0
44409,103023.0
44421,103178.0
44429,102773.0
44437,103586.0
44450,103059.0
44458,103218.0
44471,103199.0
44478,102922.0
44491,103571.0
44499,102656.0
44512,102949.0
44520,103102.0
44528,102937.0
44540,102968.0
44548,102611.0
44561,103072.0
44569,103377.0
44580,103070.0
44589,103401.0
44601,103088.0
44610,103559.0
44618,103596.0
44630,103291.0
44639,103778.0
44651,103219.0
44659,103426.0
44671,103485.0
44679,102866.0
44692,103475.0
44700,102340.0
44708,102807.0
44721,103326.0
44729,102983.0
44741,103364.0
44748,103355.0
44761,103522.0
44769,103617.0
44777,102768.0
44790,103341.0
44798,102994.0
44810,103651.0
44818,103658.0
44831,103267.0
44839,103724.0
44851,103463.0
44860,103328.0
44868,103445.0
44880,103078.0
44888,103225.0
44900,102858.0
44908,102683.0
44921,103208.0
44929,102771.0
44942,102868.0
44950,103067.0
44958,102906.0
44970,103237.0
44982,102838.0
44991,103479.0
44999,103310.0
45011,103163.0
45020,103558.0
45031,103049.0
45039,103152.0
45052,103247.0
45060,103128.0
45073,103777.0
45081,103000.0
45089,103429.0
45101,102178.0
45110,102827.0
45122,103154.0
45130,102867.0
45142,102576.0
45150,102551.0
45162,102890.0
45171,103027.0
45179,102732.0
45192,103089.0
45200,102748.0
45212,102833.0
45220,103246.0
45232,102679.0
45241,102832.0
45249,102847.0
45261,102772.0
45269,103093.0
45281,102594.0
45289,103129.0
45302,101940.0
45310,102763.0
45322,102696.0
45330,102349.0
45338,102728.0
45351,102801.0
45359,102706.0
45371,103311.0
45379,102744.0
45392,103007.0
45400,102916.0
45412,102875.0
45421,103050.0
45429,102531.0
45441,103214.0
45449,103233.0
45462,103104.0
45470,103317.0
45482,103052.0
45490,103343.0
45502,102514.0
45511,102039.0
45519,102958.0
45531,102581.0
45539,102494.0
45552,102751.0
45560,102454.0
45572,102825.0
45581,102830.0
45593,102957.0
45601,103138.0
45609,102977.0
45622,103228.0
45634,102569.0
45642,103144.0
45650,102967.0
45662,102526.0
45671,102657.0
45683,102856.0
45691,102957.0
45703,102564.0
45712,102551.0
45720,103042.0
45732,102539.0
45740,102388.0
45752,102649.0
45761,102728.0
45773,103037.0
45781,102316.0
45793,102955.0
45802,102944.0
45810,102667.0
45822,102976.0
45831,102593.0
45843,102960.0
45851,102961.0
45863,103036.0
45871,103213.0
45883,102856.0
45892,103123.0
45901,101746.0
45912,102771.0
45920,102616.0
45933,102301.0
45941,102604.0
45953,102653.0
45961,102656.0
45974,103307.0
45982,102702.0
45989,103083.0
46003,102936.0
46011,102771.0
46023,103056.0
46031,102437.0
46043,102802.0
46051,103243.0
46060,103236.0
46072,103149.0
46080,102722.0
46093,102969.0
46101,102440.0
46113,102845.0
46121,102772.0
46133,102453.0
46142,102670.0
46150,103105.0
46162,102802.0
46170,103233.0
46183,102902.0
46191,103101.0
46203,103528.0
46211,103065.0
46223,103374.0
46232,103165.0
46240,103052.0
46252,103443.0
46260,103434.0
46273,103493.0
46281,103222.0
46293,103439.0
46302,102622.0
46313,102861.0
46321,103396.0
46334,102759.0
46343,103372.0
46355,103347.0
46363,103312.0
46371,103303.0
46383,102868.0
46391,103091.0
46404,103362.0
46412,103093.0
46424,103254.0
46432,103023.0
46444,103192.0
46452,103259.0
46461,103190.0
46473,103493.0
46482,103114.0
46494,103327.0
46502,103230.0
46514,103017.0
46522,103492.0
46531,102979.0
46543,103806.0
46551,103585.0
46563,103420.0
46571,103619.0
46584,103508.0
46592,103633.0
46604,103732.0
46613,103809.0
46621,104212.0
46633,104013.0
46641,103860.0
46654,104323.0
46662,104064.0
46673,104267.0
46682,103950.0
46694,104163.0
46703,104034.0
46711,104119.0
46723,104678.0
46731,104223.0
46743,104032.0
46751,104463.0
46764,103700.0
46772,104357.0
46784,104186.0
46792,104113.0
46801,104480.0
46813,104159.0
46821,104730.0
46833,104325.0
46842,104328.0
46854,104681.0
46862,104340.0
46875,104735.0
46883,104058.0
46891,104841.0
46904,104832.0
46912,104571.0
46924,104956.0
46932,104561.0
46944,104630.0
46953,104911.0
46965,104642.0
46973,105191.0
46985,105138.0
46994,105043.0
47002,105314.0
